# XDI/1.0 Athena/0.9.26
# Element.edge:                  L3
# Element.symbol:                Pt
# Column.1:                      energy eV
# Column.2:                      xmu
# Column.3:                      bkg
# Column.4:                      pre_edge
# Column.5:                      post_edge
# Column.6:                      der
# Column.7:                      sec
# Column.8:                      i0
# Column.9:                      chi(e)
# Athena.e0:                     11564.429
# Athena.eshift:                 0.000
# Athena.rbkg:                   1.0
# Athena.importance:             1
# Athena.standard:               None
# Athena.bkg_kweight:            2
# Athena.edge_step:              0.1514844
# Athena.fixed_step:             no
# Athena.pre_edge_range:         -150 -30
# Athena.pre_edge_line:          13.573732 - 0.00116167 * E
# Athena.normalization_range:    50 300
# Athena.post_edge_polynomial:   72.193741 - 0.0111996 * E + 4.30809213e-007 * E^2 + 0 * E^3
# Athena.spline_range_energy:    0.000 1027.484
# Athena.clamps:                 0 24
# Athena.spline_range_k:         0.000 16.422
# Athena.kweight:                2
# Athena.window:                 hanning
# Athena.phase_correction:       no
# Athena.k_range:                2 6.722
# Athena.dk:                     1
# Athena.r_range:                1 3
# Athena.dr:                     0.0
# Athena.window:                 hanning
# Athena.plot_multiplier:        1
# Athena.y_offset:               0
# ///
#------------------------
#   e         xmu       bkg       pre_edge       post_edge       der       sec       i0        chie
  11349.987       0.38963418       0.38963418       0.38876787       0.57589570      -0.94917681E-03  -0.11825149E-04    45097.143        0.0000000
  11359.987       0.38014242       0.38014242       0.37715115       0.56173607      -0.10674283E-02  -0.12355685E-04    44296.538        0.0000000
  11369.987       0.36828562       0.36828562       0.36553443       0.54766261      -0.11962905E-02  -0.77157736E-05    46168.846        0.0000000
  11379.987       0.35621661       0.35621661       0.35391770       0.53367531      -0.12217438E-02  -0.11657477E-05    46337.692        0.0000000
  11389.987       0.34385074       0.34385074       0.34230098       0.51977417      -0.12196055E-02   0.95071874E-06    46825.385        0.0000000
  11399.987       0.33182450       0.33182450       0.33068426       0.50595919      -0.12027294E-02   0.13869391E-05    47228.846        0.0000000
  11409.987       0.31979615       0.31979615       0.31906754       0.49223038      -0.11918667E-02   0.66737230E-06    47292.308        0.0000000
  11419.987       0.30798716       0.30798716       0.30745082       0.47858772      -0.11893820E-02  -0.82772096E-07    48376.923        0.0000000
  11429.987       0.29600852       0.29600852       0.29583410       0.46503123      -0.11935221E-02   0.41039794E-07    48880.000        0.0000000
  11439.987       0.28411672       0.28411672       0.28421737       0.45156090      -0.11885612E-02   0.41203205E-06    49166.538        0.0000000
  11449.987       0.27223729       0.27223729       0.27260065       0.43817673      -0.11852815E-02   0.61068811E-06    49368.462        0.0000000
  11459.987       0.26041109       0.26041109       0.26098393       0.42487873      -0.11763474E-02   0.14182178E-05    49919.231        0.0000000
  11469.987       0.24871034       0.24871034       0.24936721       0.41166688      -0.11569171E-02   0.15201066E-05    50280.000        0.0000000
  11479.987       0.23727275       0.23727275       0.23775049       0.39854120      -0.11459453E-02   0.35409139E-06    50736.154        0.0000000
  11489.987       0.22579144       0.22579144       0.22613377       0.38550168      -0.11498353E-02  -0.40150705E-06    51084.800        0.0000000
  11499.987       0.21427604       0.21427604       0.21451704       0.37254832      -0.11539754E-02   0.59644666E-06    51622.692        0.0000000
  11509.987       0.20271193       0.20271193       0.20290032       0.35968112      -0.11379064E-02   0.32598845E-05    51724.231        0.0000000
  11519.987       0.19151791       0.19151791       0.19128360       0.34690009      -0.10887777E-02   0.93813564E-05    52049.600        0.0000000
  11529.987       0.18093638       0.18093638       0.17966688       0.33420522      -0.95027924E-03   0.94315081E-05    52353.600        0.0000000
  11539.987       0.17251233       0.17251233       0.16805016       0.32159650      -0.90014755E-03  -0.20843745E-04    52419.444        0.0000000
  11544.000       0.16832261       0.16832261       0.16338837       0.31656085      -0.12423626E-02  -0.10926281E-03    52298.333        0.0000000
  11544.400       0.16702978       0.16702978       0.16292370       0.31605968      -0.13823243E-02   0.11058598E-02    52075.734        0.0000000
  11544.800       0.16721675       0.16721675       0.16245903       0.31555865      -0.35767480E-03   0.85253562E-03    52099.072        0.0000000
  11545.200       0.16674364       0.16674364       0.16199436       0.31505775      -0.70029583E-03  -0.12858865E-03    52159.673        0.0000000
  11545.600       0.16665651       0.16665651       0.16152969       0.31455699      -0.46054572E-03   0.27734374E-03    52035.533        0.0000000
  11546.000       0.16637521       0.16637521       0.16106502       0.31405637      -0.47842084E-03  -0.53407895E-03    52058.004        0.0000000
  11546.400       0.16627378       0.16627378       0.16060035       0.31355588      -0.88780888E-03  -0.46662289E-03    51780.964        0.0000000
  11546.800       0.16566496       0.16566496       0.16013569       0.31305554      -0.85171915E-03   0.63565268E-03    52123.744        0.0000000
  11547.200       0.16559240       0.16559240       0.15967102       0.31255533      -0.37928674E-03   0.57501419E-03    52013.390        0.0000000
  11547.600       0.16536153       0.16536153       0.15920635       0.31205526      -0.39170779E-03   0.32029293E-03    52483.240        0.0000000
  11548.000       0.16527903       0.16527903       0.15874168       0.31155533      -0.12305240E-03   0.28991190E-03    52410.532        0.0000000
  11548.400       0.16526309       0.16526309       0.15827701       0.31105553      -0.15977827E-03  -0.47012718E-03    52218.623        0.0000000
  11548.800       0.16515121       0.16515121       0.15781234       0.31055587      -0.49915414E-03  -0.59009513E-03    51926.754        0.0000000
  11549.200       0.16486376       0.16486376       0.15734767       0.31005636      -0.63185438E-03   0.36806803E-03    52004.836        0.0000000
  11549.600       0.16464573       0.16464573       0.15688300       0.30955697      -0.20469972E-03   0.55828397E-03    52195.492        0.0000000
  11550.000       0.16470000       0.16470000       0.15641834       0.30905773      -0.18522721E-03  -0.42522168E-03    52374.232        0.0000000
  11550.400       0.16449755       0.16449755       0.15595367       0.30855863      -0.54487707E-03   0.42573781E-04    52282.588        0.0000000
  11550.800       0.16426410       0.16426410       0.15548900       0.30805966      -0.15116818E-03   0.78811191E-03    52581.555        0.0000000
  11551.200       0.16437661       0.16437661       0.15502433       0.30756083       0.85612465E-04   0.43334391E-03    52596.888        0.0000000
  11551.600       0.16433259       0.16433259       0.15455966       0.30706214       0.19550695E-03   0.18389520E-03    52610.318        0.0000000
  11552.000       0.16453302       0.16453302       0.15409499       0.30656358       0.23272863E-03   0.19984867E-03    52524.642        0.0000000
  11552.400       0.16451878       0.16451878       0.15363032       0.30606517       0.35538588E-03  -0.13333318E-03    52645.662        0.0000000
  11552.800       0.16481733       0.16481733       0.15316565       0.30556689       0.12606209E-03  -0.13439650E-03    52699.672        0.0000000
  11553.200       0.16461963       0.16461963       0.15270098       0.30506875       0.24786868E-03   0.93510106E-03    52735.300        0.0000000
  11553.600       0.16501562       0.16501562       0.15223632       0.30457075       0.87414293E-03   0.59230012E-03    52710.518        0.0000000
  11554.000       0.16531894       0.16531894       0.15177165       0.30407288       0.72170878E-03  -0.49428654E-03    52544.770        0.0000000
  11554.400       0.16559299       0.16559299       0.15130698       0.30357515       0.47871370E-03  -0.29419815E-03    52342.981        0.0000000
  11554.800       0.16570191       0.16570191       0.15084231       0.30307757       0.48635026E-03   0.80326719E-03    52310.218        0.0000000
  11555.200       0.16598207       0.16598207       0.15037764       0.30258012       0.11213275E-02   0.13322437E-02    52429.765        0.0000000
  11555.600       0.16659897       0.16659897       0.14991297       0.30208280       0.15521453E-02   0.13057837E-02    52574.935        0.0000000
  11556.000       0.16722378       0.16722378       0.14944830       0.30158563       0.21659544E-02   0.93710286E-03    52708.403        0.0000000
  11556.400       0.16833174       0.16833174       0.14898363       0.30108859       0.23018275E-02  -0.30037842E-03    52801.997        0.0000000
  11556.800       0.16906525       0.16906525       0.14851896       0.30059169       0.19256517E-02   0.18304517E-03    52588.294        0.0000000
  11557.200       0.16987226       0.16987226       0.14805430       0.30009493       0.24482637E-02   0.15946055E-02    52653.643        0.0000000
  11557.600       0.17102386       0.17102386       0.14758963       0.29959830       0.32013361E-02   0.14671949E-02    52637.008        0.0000000
  11558.000       0.17243333       0.17243333       0.14712496       0.29910182       0.36220196E-02   0.68992921E-03    52188.421        0.0000000
  11558.400       0.17392147       0.17392147       0.14666029       0.29860547       0.37532794E-02   0.10908681E-02    52236.180        0.0000000
  11558.800       0.17543595       0.17543595       0.14619562       0.29810926       0.44947141E-02   0.24016413E-02    52579.033        0.0000000
  11559.200       0.17751724       0.17751724       0.14573095       0.29761319       0.56745924E-02   0.18442225E-02    52510.703        0.0000000
  11559.600       0.17997562       0.17997562       0.14526628       0.29711725       0.59700921E-02   0.15010487E-02    52404.301        0.0000000
  11560.000       0.18229332       0.18229332       0.14480161       0.29662146       0.68754314E-02   0.28079132E-02    52274.472        0.0000000
  11560.400       0.18547597       0.18547597       0.14433694       0.29612580       0.82164227E-02   0.28320389E-02    52503.314        0.0000000
  11560.800       0.18886646       0.18886646       0.14387228       0.29563028       0.91410626E-02   0.40617351E-02    52571.106        0.0000000
  11561.200       0.19278882       0.19278882       0.14340761       0.29513489       0.11465811E-01   0.64872120E-02    52587.566        0.0000000
  11561.600       0.19803911       0.19803911       0.14294294       0.29463965       0.14330832E-01   0.64165245E-02    52573.425        0.0000000
  11562.000       0.20425348       0.20425348       0.14247827       0.29414454       0.16599030E-01   0.57741593E-02    52549.578        0.0000000
  11562.400       0.21131833       0.21131833       0.14201360       0.29364957       0.18950160E-01   0.65168990E-02    52520.000        0.0000000
  11562.800       0.21941361       0.21941361       0.14154893       0.29315474       0.21812550E-01   0.98628007E-02    52668.590        0.0000000
  11563.200       0.22876837       0.22876837       0.14108426       0.29266004       0.26840400E-01   0.13972183E-01    52740.000        0.0000000
  11563.600       0.24088593       0.24088593       0.14061959       0.29216549       0.32990296E-01   0.14149962E-01    52622.261        0.0000000
  11564.000       0.25516061       0.25516061       0.14015492       0.29167107       0.38160370E-01   0.12339483E-01    52542.996        0.0000000
  11564.400       0.27141423       0.27141423       0.13969026       0.29117679       0.42861882E-01   0.12449413E-01    52594.946        0.0000000
  11564.800       0.28945011       -16704.150       0.13922559       0.29068265       0.48119900E-01   0.16893950E-01    52545.391        110271.68
  11565.200       0.30991015       -16426.264       0.13876092       0.29018864       0.56377042E-01   0.21404189E-01    52541.752        108437.40
  11565.600       0.33455174       -16151.486       0.13829625       0.28969478       0.65243252E-01   0.16380418E-01    52687.081        106623.66
  11566.000       0.36210475       -15879.799       0.13783158       0.28920105       0.69481377E-01   0.65552773E-02    52924.491        104830.34
  11566.400       0.39013685       -15611.185       0.13736691       0.28870746       0.70487473E-01  -0.66320653E-03    53011.140        103057.31
  11566.800       0.41849473       -15345.627       0.13690224       0.28821400       0.68950811E-01  -0.12374942E-01    52883.434        101304.46
  11567.200       0.44529750       -15083.106       0.13643757       0.28772069       0.60587520E-01  -0.29443929E-01    52762.850        99571.650
  11567.600       0.46696474       -14823.607       0.13597291       0.28722751       0.45395668E-01  -0.45418617E-01    52777.180        97858.747
  11568.000       0.48161403       -14567.110       0.13550824       0.28673447       0.24252626E-01  -0.57583921E-01    52971.264        96165.621
  11568.400       0.48636685       -14313.599       0.13504357       0.28624157      -0.67146854E-03  -0.60420571E-01    53130.437        94492.139
  11568.800       0.48107686       -14063.056       0.13457890       0.28574881      -0.24083831E-01  -0.53292053E-01    53044.625        92838.185
  11569.200       0.46709978       -13815.463       0.13411423       0.28525618      -0.43305111E-01  -0.41953854E-01    52890.230        91203.651
  11569.600       0.44643277       -13570.804       0.13364956       0.28476369      -0.57646914E-01  -0.29231098E-01    52714.547        89588.435
  11570.000       0.42098225       -13329.060       0.13318489       0.28427134      -0.66689989E-01  -0.99944123E-02    52777.857        87992.435
  11570.400       0.39308078       -13090.215       0.13272022       0.28377913      -0.65642444E-01   0.77135928E-02    52699.210        86415.550
  11570.800       0.36846830       -12854.250       0.13225555       0.28328705      -0.60519115E-01   0.12821455E-01    52720.401        84857.703
  11571.200       0.34466548       -12621.148       0.13179089       0.28279512      -0.55385280E-01   0.19068883E-01    52659.753        83318.762
  11571.600       0.32416007       -12390.892       0.13132622       0.28230332      -0.45264009E-01   0.22221578E-01    52413.880        81798.628
  11572.000       0.30845428       -12163.464       0.13086155       0.28181166      -0.37608018E-01   0.14888881E-01    52229.959        80297.196
  11572.400       0.29407366       -11938.847       0.13039688       0.28132014      -0.33352904E-01   0.11793914E-01    52341.397        78814.326
  11572.800       0.28177195       -11717.023       0.12993221       0.28082875      -0.28172887E-01   0.13903765E-01    52402.530        77349.909
  11573.200       0.27153535       -11497.974       0.12946754       0.28033750      -0.22229891E-01   0.13945688E-01    52626.126        75903.828
  11573.600       0.26398804       -11281.684       0.12900287       0.27984639      -0.17016336E-01   0.11205622E-01    52861.436        74475.974
  11574.000       0.25792228       -11068.135       0.12853820       0.27935542      -0.13265394E-01   0.87576135E-02    52809.227        73066.221
  11574.400       0.25337573       -10857.309       0.12807353       0.27886459      -0.10010245E-01   0.70764974E-02    52775.243        71674.456
  11574.800       0.24991408       -10649.188       0.12760887       0.27837389      -0.76041960E-02   0.56099955E-02    52821.734        70300.559
  11575.200       0.24729237       -10443.756       0.12714420       0.27788333      -0.55222490E-02   0.47737766E-02    52656.998        68944.413
  11575.600       0.24549628       -10240.994       0.12667953       0.27739291      -0.37851747E-02   0.35366909E-02    52802.080        67605.903
  11576.000       0.24426423       -10040.886       0.12621486       0.27690263      -0.26928963E-02   0.21884650E-02    52438.262        66284.912
  11576.400       0.24334197       -9843.4134       0.12575019       0.27641249      -0.20344027E-02   0.21826520E-02    52540.810        64981.323
  11576.800       0.24263671       -9648.5591       0.12528552       0.27592248      -0.94677472E-03   0.16916420E-02    52475.237        63695.019
  11577.200       0.24258455       -9456.3056       0.12482085       0.27543261      -0.68108904E-03   0.44175284E-03    52725.443        62425.888
  11577.600       0.24209184       -9266.6354       0.12435618       0.27494288      -0.59337245E-03   0.19527887E-03    52840.542        61173.807
  11578.000       0.24210985       -9079.5310       0.12389151       0.27445329      -0.52486594E-03   0.58881144E-03    52677.502        59938.668
  11578.400       0.24167194       -8894.9749       0.12342685       0.27396383      -0.12232329E-03   0.85138485E-03    52707.950        58720.347
  11578.800       0.24201199       -8712.9496       0.12296218       0.27347451       0.15624194E-03  -0.10875004E-03    52608.306        57518.739
  11579.200       0.24179694       -8533.4376       0.12249751       0.27298534      -0.20932332E-03  -0.92830093E-03    52625.795        56333.717
  11579.600       0.24184453       -8356.4214       0.12203284       0.27249629      -0.58639880E-03  -0.10043953E-02    52605.275        55165.174
  11580.000       0.24132782       -8181.8836       0.12156817       0.27200739      -0.10128396E-02  -0.10793701E-02    52787.406        54012.987
  11580.400       0.24103426       -8009.8066       0.12110350       0.27151862      -0.14498949E-02  -0.73905033E-03    52761.723        52877.046
  11580.800       0.24016790       -7840.1730       0.12063883       0.27103000      -0.16040798E-02  -0.14307838E-03    52772.878        51757.231
  11581.200       0.23975100       -7672.9652       0.12017416       0.27054151      -0.15643576E-02  -0.97343100E-03    52539.989        50653.433
  11581.600       0.23891641       -7508.1657       0.11970949       0.27005315      -0.23828246E-02  -0.11767936E-02    52616.253        49565.531
  11582.000       0.23784474       -7345.7572       0.11924483       0.26956494      -0.25057924E-02  -0.19867386E-03    52531.283        48493.409
  11582.400       0.23691178       -7185.7220       0.11878016       0.26907686      -0.25417637E-02  -0.16561741E-03    52678.059        47436.957
  11582.800       0.23581133       -7028.0427       0.11831549       0.26858892      -0.26382864E-02  -0.51239122E-04    52400.571        46396.055
  11583.200       0.23480115       -6872.7018       0.11785082       0.26810112      -0.25827550E-02  -0.26493803E-04    52545.488        45370.590
  11583.600       0.23374512       -6719.6819       0.11738615       0.26761346      -0.26594814E-02  -0.62759668E-03    52632.305        44360.446
  11584.000       0.23267357       -6568.9653       0.11692148       0.26712593      -0.30848324E-02  -0.10052072E-02    52693.654        43365.508
  11584.400       0.23127726       -6420.5347       0.11645681       0.26663855      -0.34636472E-02   0.36152960E-03    52709.459        42385.658
  11584.800       0.22990265       -6274.3724       0.11599214       0.26615130      -0.27956087E-02   0.23390497E-02    52638.604        41420.782
  11585.200       0.22904077       -6130.4612       0.11552748       0.26566419      -0.15924074E-02   0.11706586E-02    52435.995        40470.769
