# XDI/1.0 Athena/0.9.26
# Element.edge:                  L3
# Element.symbol:                Pt
# Column.1:                      energy eV
# Column.2:                      xmu
# Column.3:                      bkg
# Column.4:                      pre_edge
# Column.5:                      post_edge
# Column.6:                      der
# Column.7:                      sec
# Column.8:                      i0
# Column.9:                      chi(e)
# Athena.e0:                     11564.429
# Athena.eshift:                 0.000
# Athena.rbkg:                   1.0
# Athena.importance:             1
# Athena.standard:               None
# Athena.bkg_kweight:            2
# Athena.edge_step:              0.1520370
# Athena.fixed_step:             no
# Athena.pre_edge_range:         -150 -30
# Athena.pre_edge_line:          13.561085 - 0.00116043 * E
# Athena.normalization_range:    50 300
# Athena.post_edge_polynomial:   74.300045 - 0.011559 * E + 4.46150508e-007 * E^2 + 0 * E^3
# Athena.spline_range_energy:    0.000 1027.484
# Athena.clamps:                 0 24
# Athena.spline_range_k:         0.000 16.422
# Athena.kweight:                2
# Athena.window:                 hanning
# Athena.phase_correction:       no
# Athena.k_range:                2 6.734
# Athena.dk:                     1
# Athena.r_range:                1 3
# Athena.dr:                     0.0
# Athena.window:                 hanning
# Athena.plot_multiplier:        1
# Athena.y_offset:               0
# ///
#------------------------
#   e         xmu       bkg       pre_edge       post_edge       der       sec       i0        chie
  11349.987       0.39074098       0.39074098       0.39016356       0.57978658      -0.91780459E-03  -0.13729695E-04    45097.143        0.0000000
  11359.987       0.38156294       0.38156294       0.37855921       0.56551737      -0.10551015E-02  -0.13790954E-04    44296.538        0.0000000
  11369.987       0.36963895       0.36963895       0.36695486       0.55133740      -0.11936237E-02  -0.74793276E-05    46168.846        0.0000000
  11379.987       0.35769046       0.35769046       0.35535051       0.53724666      -0.12046881E-02  -0.68701065E-06    46337.692        0.0000000
  11389.987       0.34554519       0.34554519       0.34374616       0.52324514      -0.12073639E-02  -0.17425045E-06    46825.385        0.0000000
  11399.987       0.33354319       0.33354319       0.33214181       0.50933286      -0.12081731E-02   0.23574738E-06    47228.846        0.0000000
  11409.987       0.32138173       0.32138173       0.32053746       0.49550981      -0.12026489E-02   0.75130296E-06    47292.308        0.0000000
  11419.987       0.30949021       0.30949021       0.30893311       0.48177598      -0.11931470E-02   0.16171693E-06    48376.923        0.0000000
  11429.987       0.29751879       0.29751879       0.29732876       0.46813139      -0.11994146E-02   0.16127559E-06    48880.000        0.0000000
  11439.987       0.28550192       0.28550192       0.28572441       0.45457603      -0.11899215E-02   0.83638843E-06    49166.538        0.0000000
  11449.987       0.27372036       0.27372036       0.27412006       0.44110989      -0.11826868E-02   0.94248266E-06    49368.462        0.0000000
  11459.987       0.26184818       0.26184818       0.26251571       0.42773299      -0.11710719E-02   0.15096362E-05    49919.231        0.0000000
  11469.987       0.25029892       0.25029892       0.25091136       0.41444532      -0.11524941E-02   0.11992687E-05    50280.000        0.0000000
  11479.987       0.23879830       0.23879830       0.23930702       0.40124688      -0.11470865E-02   0.37437471E-06    50736.154        0.0000000
  11489.987       0.22735719       0.22735719       0.22770267       0.38813766      -0.11450066E-02  -0.17619686E-06    51084.800        0.0000000
  11499.987       0.21589816       0.21589816       0.21609832       0.37511768      -0.11506104E-02   0.25875074E-06    51622.692        0.0000000
  11509.987       0.20434498       0.20434498       0.20449397       0.36218693      -0.11398316E-02   0.31367615E-05    51724.231        0.0000000
  11519.987       0.19310153       0.19310153       0.19288962       0.34934541      -0.10878752E-02   0.98751959E-05    52049.600        0.0000000
  11529.987       0.18258748       0.18258748       0.18128527       0.33659311      -0.94232768E-03   0.99328553E-05    52353.600        0.0000000
  11539.987       0.17425498       0.17425498       0.16968092       0.32393005      -0.88921811E-03  -0.12536667E-04    52419.444        0.0000000
  11544.000       0.17012686       0.17012686       0.16502409       0.31887345      -0.11180040E-02  -0.18469153E-03    52298.333        0.0000000
  11544.400       0.16932123       0.16932123       0.16455992       0.31837022      -0.17042618E-02  -0.16326941E-03    52075.734        0.0000000
  11544.800       0.16876345       0.16876345       0.16409575       0.31786713      -0.12486195E-02   0.10769843E-02    52099.072        0.0000000
  11545.200       0.16832233       0.16832233       0.16363157       0.31736418      -0.84267443E-03   0.13781618E-02    52159.673        0.0000000
  11545.600       0.16808931       0.16808931       0.16316740       0.31686137      -0.14609008E-03   0.64767511E-03    52035.533        0.0000000
  11546.000       0.16820546       0.16820546       0.16270322       0.31635871      -0.32453434E-03  -0.54708585E-03    52058.004        0.0000000
  11546.400       0.16782969       0.16782969       0.16223905       0.31585619      -0.58375876E-03  -0.43186482E-03    51780.964        0.0000000
  11546.800       0.16773845       0.16773845       0.16177488       0.31535381      -0.67002620E-03   0.52642420E-03    52123.744        0.0000000
  11547.200       0.16729367       0.16729367       0.16131070       0.31485158      -0.16261939E-03  -0.37894989E-04    52013.390        0.0000000
  11547.600       0.16760836       0.16760836       0.16084653       0.31434949      -0.70034219E-03  -0.56189895E-03    52483.240        0.0000000
  11548.000       0.16673339       0.16673339       0.16038235       0.31384754      -0.61213855E-03   0.10239890E-02    52410.532        0.0000000
  11548.400       0.16711865       0.16711865       0.15991818       0.31334573       0.11884898E-03  -0.39670774E-04    52218.623        0.0000000
  11548.800       0.16682847       0.16682847       0.15945401       0.31284407      -0.64387517E-03  -0.44091425E-03    51926.754        0.0000000
  11549.200       0.16660355       0.16660355       0.15898983       0.31234255      -0.23388242E-03   0.11383729E-03    52004.836        0.0000000
  11549.600       0.16664137       0.16664137       0.15852566       0.31184117      -0.55280534E-03  -0.39801668E-04    52195.492        0.0000000
  11550.000       0.16616130       0.16616130       0.15806148       0.31133993      -0.26572376E-03   0.10704920E-02    52374.232        0.0000000
  11550.400       0.16642879       0.16642879       0.15759731       0.31083884       0.30358826E-03  -0.15478997E-03    52282.588        0.0000000
  11550.800       0.16640417       0.16640417       0.15713314       0.31033789      -0.38955573E-03  -0.10548409E-02    52581.555        0.0000000
  11551.200       0.16611714       0.16611714       0.15666896       0.30983708      -0.54028446E-03   0.48488612E-03    52596.888        0.0000000
  11551.600       0.16597195       0.16597195       0.15620479       0.30933642      -0.16468351E-05   0.16963910E-02    52610.318        0.0000000
  11552.000       0.16611582       0.16611582       0.15574061       0.30883590       0.81682832E-03   0.17062511E-03    52524.642        0.0000000
  11552.400       0.16662541       0.16662541       0.15527644       0.30833552       0.13485325E-03  -0.13535343E-02    52645.662        0.0000000
  11552.800       0.16622371       0.16622371       0.15481227       0.30783528      -0.26599911E-03   0.70621591E-03    52699.672        0.0000000
  11553.200       0.16641261       0.16641261       0.15434809       0.30733519       0.69982598E-03   0.93952019E-03    52735.300        0.0000000
  11553.600       0.16678357       0.16678357       0.15388392       0.30683524       0.48561704E-03  -0.87388667E-04    52710.518        0.0000000
  11554.000       0.16680110       0.16680110       0.15341974       0.30633543       0.62991505E-03   0.10508432E-02    52544.770        0.0000000
  11554.400       0.16728750       0.16728750       0.15295557       0.30583576       0.13262916E-02   0.50696906E-03    52342.981        0.0000000
  11554.800       0.16786214       0.16786214       0.15249140       0.30533624       0.10354903E-02  -0.14881155E-03    52310.218        0.0000000
  11555.200       0.16811589       0.16811589       0.15202722       0.30483686       0.12072424E-02   0.52928212E-03    52429.765        0.0000000
  11555.600       0.16882793       0.16882793       0.15156305       0.30433763       0.14589160E-02   0.36153679E-03    52574.935        0.0000000
  11556.000       0.16928302       0.16928302       0.15109887       0.30383853       0.14964718E-02   0.85105365E-03    52708.403        0.0000000
  11556.400       0.17002511       0.17002511       0.15063470       0.30333958       0.21397589E-02   0.11153672E-02    52801.997        0.0000000
  11556.800       0.17099483       0.17099483       0.15017053       0.30284077       0.23887656E-02   0.75793635E-03    52588.294        0.0000000
  11557.200       0.17193612       0.17193612       0.14970635       0.30234211       0.27461080E-02   0.11232358E-02    52653.643        0.0000000
  11557.600       0.17319172       0.17319172       0.14924218       0.30184358       0.32873542E-02   0.99880174E-03    52637.008        0.0000000
  11558.000       0.17456600       0.17456600       0.14877800       0.30134520       0.35451494E-02   0.54008585E-03    52188.421        0.0000000
  11558.400       0.17602784       0.17602784       0.14831383       0.30084697       0.37194229E-02   0.13343601E-02    52236.180        0.0000000
  11558.800       0.17754154       0.17754154       0.14784966       0.30034887       0.46126374E-02   0.21253437E-02    52579.033        0.0000000
  11559.200       0.17971795       0.17971795       0.14738548       0.29985092       0.54196979E-02   0.20786987E-02    52510.703        0.0000000
  11559.600       0.18187730       0.18187730       0.14692131       0.29935311       0.62755964E-02   0.24581803E-02    52404.301        0.0000000
  11560.000       0.18473842       0.18473842       0.14645713       0.29885545       0.73862421E-02   0.21630447E-02    52274.472        0.0000000
  11560.400       0.18778629       0.18778629       0.14599296       0.29835792       0.80060322E-02   0.24680648E-02    52503.314        0.0000000
  11560.800       0.19114325       0.19114325       0.14552879       0.29786054       0.93606939E-02   0.44141572E-02    52571.106        0.0000000
  11561.200       0.19527485       0.19527485       0.14506461       0.29736330       0.11537358E-01   0.52122610E-02    52587.566        0.0000000
  11561.600       0.20037314       0.20037314       0.14460044       0.29686621       0.13530503E-01   0.63889892E-02    52573.425        0.0000000
  11562.000       0.20609925       0.20609925       0.14413626       0.29636926       0.16648549E-01   0.76238315E-02    52549.578        0.0000000
  11562.400       0.21369198       0.21369198       0.14367209       0.29587245       0.19629568E-01   0.79816226E-02    52520.000        0.0000000
  11562.800       0.22180290       0.22180290       0.14320792       0.29537578       0.23033847E-01   0.11621665E-01    52668.590        0.0000000
  11563.200       0.23211905       0.23211905       0.14274374       0.29487926       0.28926900E-01   0.13266072E-01    52740.000        0.0000000
  11563.600       0.24494442       0.24494442       0.14227957       0.29438287       0.33646705E-01   0.10451230E-01    52622.261        0.0000000
  11564.000       0.25903642       0.25903642       0.14181539       0.29388664       0.37287883E-01   0.11673506E-01    52542.996        0.0000000
  11564.400       0.27477473       0.27477473       0.14135122       0.29339054       0.42985510E-01   0.15838270E-01    52594.946        0.0000000
  11564.800       0.29342483       -18097.898       0.14088705       0.29289459       0.49958499E-01   0.18314292E-01    52545.391        119038.07
  11565.200       0.31474153       -17796.559       0.14042287       0.29239878       0.57636944E-01   0.21074121E-01    52541.752        117056.20
  11565.600       0.33953438       -17498.591       0.13995870       0.29190311       0.66817796E-01   0.17447591E-01    52687.081        115096.53
  11566.000       0.36819577       -17203.975       0.13949452       0.29140759       0.71595017E-01   0.39979928E-02    52924.491        113158.93
  11566.400       0.39681039       -16912.693       0.13903035       0.29091220       0.70016190E-01  -0.26678383E-02    53011.140        111243.25
  11566.800       0.42420872       -16624.725       0.13856618       0.29041696       0.69460746E-01  -0.57832702E-02    52883.434        109349.36
  11567.200       0.45237899       -16340.052       0.13810200       0.28992187       0.65389574E-01  -0.26638860E-01    52762.850        107477.15
  11567.600       0.47652038       -16058.655       0.13763783       0.28942691       0.48149658E-01  -0.52613499E-01    52777.180        105626.47
  11568.000       0.49089872       -15780.515       0.13717366       0.28893210       0.23298775E-01  -0.62160881E-01    52971.264        103797.14
  11568.400       0.49515940       -15505.614       0.13670948       0.28843743      -0.15790468E-02  -0.61390817E-01    53130.437        101989.05
  11568.800       0.48963548       -15233.932       0.13624531       0.28794291      -0.25813879E-01  -0.56956865E-01    53044.625        100202.07
  11569.200       0.47450830       -14965.450       0.13578113       0.28744853      -0.47144539E-01  -0.45330661E-01    52890.230        98436.070
  11569.600       0.45191985       -14700.150       0.13531696       0.28695429      -0.62078408E-01  -0.25769829E-01    52714.547        96690.950
  11570.000       0.42484557       -14438.012       0.13485279       0.28646019      -0.67760402E-01  -0.49991960E-02    52777.857        94966.601
  11570.400       0.39771153       -14179.018       0.13438861       0.28596624      -0.66077765E-01   0.82824952E-02    52699.210        93262.926
  11570.800       0.37198336       -13923.148       0.13392444       0.28547242      -0.61134406E-01   0.12062093E-01    52720.401        91579.812
  11571.200       0.34880400       -13670.383       0.13346026       0.28497876      -0.56428091E-01   0.12970928E-01    52659.753        89917.140
  11571.600       0.32684088       -13420.705       0.13299609       0.28448523      -0.50757664E-01   0.18936227E-01    52413.880        88274.777
  11572.000       0.30819787       -13174.095       0.13253192       0.28399185      -0.41279109E-01   0.22077176E-01    52229.959        86652.612
  11572.400       0.29381760       -12930.533       0.13206774       0.28349861      -0.33095923E-01   0.17961236E-01    52341.397        85050.527
  11572.800       0.28172113       -12690.001       0.13160357       0.28300551      -0.26910120E-01   0.14273202E-01    52402.530        83468.383
  11573.200       0.27228950       -12452.479       0.13113939       0.28251255      -0.21677361E-01   0.11833932E-01    52626.126        81906.059
  11573.600       0.26437925       -12217.949       0.13067522       0.28201974      -0.17442975E-01   0.94325335E-02    52861.436        80363.422
  11574.000       0.25833512       -11986.392       0.13021105       0.28152707      -0.14131334E-01   0.82496117E-02    52809.227        78840.349
  11574.400       0.25307418       -11757.788       0.12974687       0.28103455      -0.10843285E-01   0.81781819E-02    52775.243        77336.709
  11574.800       0.24966049       -11532.119       0.12928270       0.28054216      -0.75887890E-02   0.67559392E-02    52821.734        75852.384
  11575.200       0.24700315       -11309.366       0.12881852       0.28004992      -0.54385339E-02   0.54371830E-02    52656.998        74387.241
  11575.600       0.24530967       -11089.510       0.12835435       0.27955782      -0.32390426E-02   0.37047926E-02    52802.080        72941.158
  11576.000       0.24441191       -10872.531       0.12789018       0.27906587      -0.24746999E-02   0.18847467E-02    52438.262        71514.009
  11576.400       0.24332991       -10658.411       0.12742600       0.27857405      -0.17312452E-02   0.22565341E-02    52540.810        70105.662
  11576.800       0.24302692       -10447.131       0.12696183       0.27808238      -0.66947263E-03   0.10413771E-02    52475.237        68715.998
  11577.200       0.24279433       -10238.672       0.12649765       0.27759086      -0.89814351E-03   0.29778377E-03    52725.443        67344.889
  11577.600       0.24230840       -10033.015       0.12603348       0.27709947      -0.43124561E-03   0.10339484E-02    52840.542        65992.208
  11578.000       0.24244933       -9830.1407       0.12556931       0.27660823      -0.70984761E-04   0.10642129E-02    52677.502        64657.834
  11578.400       0.24225161       -9630.0305       0.12510513       0.27611713       0.42012470E-03   0.43955139E-03    52707.950        63341.639
  11578.800       0.24278543       -9432.6652       0.12464096       0.27562618       0.28065635E-03  -0.12780051E-02    52608.306        62043.502
  11579.200       0.24247614       -9238.0259       0.12417678       0.27513536      -0.60227934E-03  -0.10125728E-02    52625.795        60763.290
  11579.600       0.24230361       -9046.0936       0.12371261       0.27464469      -0.52940188E-03  -0.47214988E-03    52605.275        59500.884
  11580.000       0.24205262       -8856.8495       0.12324844       0.27415416      -0.97999925E-03  -0.62050480E-03    52787.406        58256.158
  11580.400       0.24151961       -8670.2744       0.12278426       0.27366378      -0.10258057E-02  -0.42566511E-03    52761.723        57028.986
  11580.800       0.24123197       -8486.3494       0.12232009       0.27317354      -0.13205313E-02  -0.13723735E-02    52772.878        55819.246
  11581.200       0.24046318       -8305.0556       0.12185591       0.27268344      -0.21237046E-02  -0.85904896E-03    52539.989        54626.808
  11581.600       0.23953301       -8126.3740       0.12139174       0.27219348      -0.20077705E-02  -0.28460216E-03    52616.253        53451.551
  11582.000       0.23885697       -7950.2855       0.12092757       0.27170367      -0.23513863E-02  -0.14023057E-02    52531.283        52293.352
  11582.400       0.23765190       -7776.7713       0.12046339       0.27121400      -0.31296150E-02   0.12400709E-03    52678.059        51152.081
  11582.800       0.23635328       -7605.8123       0.11999922       0.27072447      -0.22521806E-02   0.15933650E-03    52400.571        50027.616
  11583.200       0.23585016       -7437.3896       0.11953504       0.27023508      -0.30021458E-02  -0.14662975E-02    52545.488        48919.838
  11583.600       0.23395156       -7271.4842       0.11907087       0.26974584      -0.34252186E-02   0.46242483E-03    52632.305        47828.609
  11584.000       0.23310998       -7108.0772       0.11860670       0.26925674      -0.26322060E-02   0.96704195E-03    52693.654        46753.818
  11584.400       0.23184579       -6947.1495       0.11814252       0.26876778      -0.26515850E-02   0.10218376E-02    52709.459        45695.333
  11584.800       0.23098871       -6788.6822       0.11767835       0.26827897      -0.18147359E-02   0.14729101E-03    52638.604        44653.033
  11585.200       0.23039401       -6632.6562       0.11721417       0.26779030      -0.25337522E-02  -0.91610925E-03    52435.995        43626.792
