# XDI/1.0 Athena/0.9.26
# Element.edge:                  L3
# Element.symbol:                Pt
# Column.1:                      energy eV
# Column.2:                      xmu
# Column.3:                      bkg
# Column.4:                      pre_edge
# Column.5:                      post_edge
# Column.6:                      der
# Column.7:                      sec
# Column.8:                      i0
# Column.9:                      chi(e)
# Athena.e0:                     11564.429
# Athena.eshift:                 0.000
# Athena.rbkg:                   1.0
# Athena.importance:             1
# Athena.standard:               None
# Athena.bkg_kweight:            2
# Athena.edge_step:              0.1472742
# Athena.fixed_step:             no
# Athena.pre_edge_range:         -150 -30
# Athena.pre_edge_line:          13.225389 - 0.0011391 * E
# Athena.normalization_range:    50 300
# Athena.post_edge_polynomial:   51.715742 - 0.00775103 * E + 2.85040146e-007 * E^2 + 0 * E^3
# Athena.spline_range_energy:    0.000 1027.484
# Athena.clamps:                 0 24
# Athena.spline_range_k:         0.000 16.422
# Athena.kweight:                2
# Athena.window:                 hanning
# Athena.phase_correction:       no
# Athena.k_range:                2 6.77
# Athena.dk:                     1
# Athena.r_range:                1 3
# Athena.dr:                     0.0
# Athena.window:                 hanning
# Athena.plot_multiplier:        1
# Athena.y_offset:               0
# ///
#------------------------
#   e         xmu       bkg       pre_edge       post_edge       der       sec       i0        chie
  11349.987       0.29732655       0.29732655       0.29658802       0.46110401      -0.90243843E-03  -0.14102270E-04    45097.143        0.0000000
  11359.987       0.28830216       0.28830216       0.28519700       0.44832621      -0.10434611E-02  -0.13857655E-04    44296.538        0.0000000
  11369.987       0.27645732       0.27645732       0.27380597       0.43560542      -0.11795915E-02  -0.69678637E-05    46168.846        0.0000000
  11379.987       0.26471033       0.26471033       0.26241494       0.42294164      -0.11828184E-02  -0.31022846E-06    46337.692        0.0000000
  11389.987       0.25280096       0.25280096       0.25102392       0.41033486      -0.11857961E-02   0.49764638E-07    46825.385        0.0000000
  11399.987       0.24099441       0.24099441       0.23963289       0.39778510      -0.11818231E-02   0.33199394E-06    47228.846        0.0000000
  11409.987       0.22916449       0.22916449       0.22824186       0.38529234      -0.11791562E-02   0.48772228E-06    47292.308        0.0000000
  11419.987       0.21741129       0.21741129       0.21685083       0.37285658      -0.11720687E-02   0.62937127E-07    48376.923        0.0000000
  11429.987       0.20572312       0.20572312       0.20545981       0.36047784      -0.11778975E-02  -0.39753852E-06    48880.000        0.0000000
  11439.987       0.19385334       0.19385334       0.19406878       0.34815611      -0.11800194E-02   0.86063928E-06    49166.538        0.0000000
  11449.987       0.18212273       0.18212273       0.18267775       0.33589138      -0.11606847E-02   0.20084039E-05    49368.462        0.0000000
  11459.987       0.17063964       0.17063964       0.17128673       0.32368366      -0.11398514E-02   0.15333843E-05    49919.231        0.0000000
  11469.987       0.15932571       0.15932571       0.15989570       0.31153295      -0.11300170E-02   0.95611196E-07    50280.000        0.0000000
  11479.987       0.14803930       0.14803930       0.14850467       0.29943924      -0.11379391E-02  -0.28138210E-06    50736.154        0.0000000
  11489.987       0.13656692       0.13656692       0.13711364       0.28740255      -0.11356447E-02   0.10850630E-05    51084.800        0.0000000
  11499.987       0.12532641       0.12532641       0.12572262       0.27542286      -0.11162379E-02   0.16682746E-05    51622.692        0.0000000
  11509.987       0.11424217       0.11424217       0.11433159       0.26350018      -0.11022792E-02   0.25768505E-05    51724.231        0.0000000
  11519.987       0.10328083       0.10328083       0.10294056       0.25163451      -0.10647009E-02   0.81289057E-05    52049.600        0.0000000
  11529.987       0.92948148E-01   0.92948148E-01   0.91549536E-01   0.23982585      -0.93970105E-03   0.78517347E-05    52353.600        0.0000000
  11539.987       0.84486804E-01   0.84486804E-01   0.80158509E-01   0.22807419      -0.90766617E-03  -0.19232908E-04    52419.444        0.0000000
  11544.000       0.80229022E-01   0.80229022E-01   0.75587290E-01   0.22337428      -0.12092118E-02  -0.19123390E-03    52298.333        0.0000000
  11544.400       0.79150553E-01   0.79150553E-01   0.75131649E-01   0.22290632      -0.17515814E-02   0.20501628E-03    52075.734        0.0000000
  11544.800       0.78827757E-01   0.78827757E-01   0.74676008E-01   0.22243844      -0.10451988E-02   0.12678221E-02    52099.072        0.0000000
  11545.200       0.78314394E-01   0.78314394E-01   0.74220366E-01   0.22197066      -0.73732369E-03   0.85754265E-03    52159.673        0.0000000
  11545.600       0.78237898E-01   0.78237898E-01   0.73764725E-01   0.22150297      -0.35916465E-03   0.18562904E-03    52035.533        0.0000000
  11546.000       0.78027062E-01   0.78027062E-01   0.73309084E-01   0.22103537      -0.58882045E-03  -0.23298034E-03    52058.004        0.0000000
  11546.400       0.77766842E-01   0.77766842E-01   0.72853443E-01   0.22056786      -0.54554892E-03  -0.24335225E-04    51780.964        0.0000000
  11546.800       0.77590623E-01   0.77590623E-01   0.72397802E-01   0.22010044      -0.60828863E-03  -0.32450827E-04    52123.744        0.0000000
  11547.200       0.77280211E-01   0.77280211E-01   0.71942161E-01   0.21963311      -0.57150958E-03   0.46178650E-03    52013.390        0.0000000
  11547.600       0.77133415E-01   0.77133415E-01   0.71486520E-01   0.21916588      -0.23885943E-03   0.23027636E-03    52483.240        0.0000000
  11548.000       0.77089123E-01   0.77089123E-01   0.71030879E-01   0.21869873      -0.38728849E-03  -0.33923832E-03    52410.532        0.0000000
  11548.400       0.76823584E-01   0.76823584E-01   0.70575238E-01   0.21823168      -0.51025009E-03   0.34984161E-03    52218.623        0.0000000
  11548.800       0.76680923E-01   0.76680923E-01   0.70119597E-01   0.21776472      -0.10741520E-03   0.16179370E-03    51926.754        0.0000000
  11549.200       0.76737652E-01   0.76737652E-01   0.69663956E-01   0.21729785      -0.38081512E-03  -0.87742853E-03    52004.836        0.0000000
  11549.600       0.76376271E-01   0.76376271E-01   0.69208314E-01   0.21683107      -0.80935803E-03   0.28878799E-03    52195.492        0.0000000
  11550.000       0.76090166E-01   0.76090166E-01   0.68752673E-01   0.21636438      -0.14978473E-03   0.12100059E-02    52374.232        0.0000000
  11550.400       0.76256443E-01   0.76256443E-01   0.68297032E-01   0.21589778       0.15864666E-03  -0.56826403E-03    52282.588        0.0000000
  11550.800       0.76217083E-01   0.76217083E-01   0.67841391E-01   0.21543127      -0.60439595E-03  -0.65195397E-03    52581.555        0.0000000
  11551.200       0.75772927E-01   0.75772927E-01   0.67385750E-01   0.21496486      -0.36291651E-03   0.96922675E-03    52596.888        0.0000000
  11551.600       0.75926750E-01   0.75926750E-01   0.66930109E-01   0.21449854       0.17098544E-03   0.55209590E-03    52610.318        0.0000000
  11552.000       0.75909715E-01   0.75909715E-01   0.66474468E-01   0.21403230       0.78760210E-04  -0.37350172E-04    52524.642        0.0000000
  11552.400       0.75989758E-01   0.75989758E-01   0.66018827E-01   0.21356616       0.14110531E-03  -0.15293796E-03    52645.662        0.0000000
  11552.800       0.76022599E-01   0.76022599E-01   0.65563186E-01   0.21310011      -0.43590155E-04  -0.11320476E-04    52699.672        0.0000000
  11553.200       0.75954886E-01   0.75954886E-01   0.65107545E-01   0.21263415       0.13204893E-03   0.75386558E-03    52735.300        0.0000000
  11553.600       0.76128238E-01   0.76128238E-01   0.64651904E-01   0.21216829       0.55950231E-03   0.45135625E-03    52710.518        0.0000000
  11554.000       0.76402488E-01   0.76402488E-01   0.64196263E-01   0.21170251       0.49313392E-03  -0.12310775E-03    52544.770        0.0000000
  11554.400       0.76522745E-01   0.76522745E-01   0.63740621E-01   0.21123683       0.46101611E-03   0.84814185E-03    52342.981        0.0000000
  11554.800       0.76771301E-01   0.76771301E-01   0.63284980E-01   0.21077123       0.11716474E-02   0.13241383E-02    52310.218        0.0000000
  11555.200       0.77460063E-01   0.77460063E-01   0.62829339E-01   0.21030573       0.15203268E-02   0.12478280E-03    52429.765        0.0000000
  11555.600       0.77987562E-01   0.77987562E-01   0.62373698E-01   0.20984032       0.12714736E-02   0.77666140E-04    52574.935        0.0000000
  11556.000       0.78477242E-01   0.78477242E-01   0.61918057E-01   0.20937500       0.15824597E-02   0.10349909E-02    52708.403        0.0000000
  11556.400       0.79253530E-01   0.79253530E-01   0.61462416E-01   0.20890977       0.20994664E-02   0.97100281E-03    52801.997        0.0000000
  11556.800       0.80156815E-01   0.80156815E-01   0.61006775E-01   0.20844463       0.23592619E-02   0.88627043E-03    52588.294        0.0000000
  11557.200       0.81140939E-01   0.81140939E-01   0.60551134E-01   0.20797958       0.28084827E-02   0.97304493E-03    52653.643        0.0000000
  11557.600       0.82403602E-01   0.82403602E-01   0.60095493E-01   0.20751463       0.31376979E-02   0.86800796E-03    52637.008        0.0000000
  11558.000       0.83651098E-01   0.83651098E-01   0.59639852E-01   0.20704977       0.35028891E-02   0.12499452E-02    52188.421        0.0000000
  11558.400       0.85205913E-01   0.85205913E-01   0.59184211E-01   0.20658499       0.41376541E-02   0.20582795E-02    52236.180        0.0000000
  11558.800       0.86961221E-01   0.86961221E-01   0.58728570E-01   0.20612031       0.51495127E-02   0.26978959E-02    52579.033        0.0000000
  11559.200       0.89325523E-01   0.89325523E-01   0.58272928E-01   0.20565572       0.62959708E-02   0.21189703E-02    52510.703        0.0000000
  11559.600       0.91997998E-01   0.91997998E-01   0.57817287E-01   0.20519122       0.68446889E-02   0.19074159E-02    52404.301        0.0000000
  11560.000       0.94801274E-01   0.94801274E-01   0.57361646E-01   0.20472681       0.78219035E-02   0.42716529E-02    52274.472        0.0000000
  11560.400       0.98255520E-01   0.98255520E-01   0.56906005E-01   0.20426250       0.10262011E-01   0.54785013E-02    52503.314        0.0000000
  11560.800       0.10301088       0.10301088       0.56450364E-01   0.20379827       0.12204705E-01   0.43234650E-02    52571.106        0.0000000
  11561.200       0.10801928       0.10801928       0.55994723E-01   0.20333414       0.13720783E-01   0.52395780E-02    52587.566        0.0000000
  11561.600       0.11398751       0.11398751       0.55539082E-01   0.20287009       0.16396367E-01   0.72088467E-02    52573.425        0.0000000
  11562.000       0.12113638       0.12113638       0.55083441E-01   0.20240614       0.19487861E-01   0.82644966E-02    52549.578        0.0000000
  11562.400       0.12957780       0.12957780       0.54627800E-01   0.20194228       0.23007964E-01   0.92430353E-02    52520.000        0.0000000
  11562.800       0.13954275       0.13954275       0.54172159E-01   0.20147851       0.26882289E-01   0.10279357E-01    52668.590        0.0000000
  11563.200       0.15108363       0.15108363       0.53716518E-01   0.20101483       0.31231450E-01   0.74561050E-02    52740.000        0.0000000
  11563.600       0.16452791       0.16452791       0.53260876E-01   0.20055125       0.32847173E-01  -0.46217164E-04    52622.261        0.0000000
  11564.000       0.17736137       0.17736137       0.52805235E-01   0.20008775       0.31194476E-01  -0.24086035E-02    52542.996        0.0000000
  11564.400       0.18948349       0.18948349       0.52349594E-01   0.19962434       0.30920290E-01  -0.22986700E-02    52594.946        0.0000000
  11564.800       0.20209760       -2041.1933       0.51893953E-01   0.19916103       0.29355540E-01  -0.85280804E-02    52545.391        13861.188
  11565.200       0.21296792       -2007.5664       0.51438312E-01   0.19869781       0.24097826E-01  -0.13283047E-01    52541.752        13632.934
  11565.600       0.22137586       -1974.3147       0.50982671E-01   0.19823468       0.18729102E-01  -0.12505923E-01    52687.081        13407.210
  11566.000       0.22795120       -1941.4360       0.50527030E-01   0.19777164       0.14093088E-01  -0.11325650E-01    52924.491        13184.006
  11566.400       0.23265033       -1908.9282       0.50071389E-01   0.19730869       0.96685825E-02  -0.10220498E-01    53011.140        12963.309
  11566.800       0.23568607       -1876.7893       0.49615748E-01   0.19684583       0.59166889E-02  -0.86639980E-02    52883.434        12745.104
  11567.200       0.23738368       -1845.0171       0.49160107E-01   0.19638307       0.27373841E-02  -0.83127329E-02    52762.850        12529.381
  11567.600       0.23787598       -1813.6095       0.48704466E-01   0.19592039      -0.73349740E-03  -0.79884752E-02    52777.180        12316.125
  11568.000       0.23679688       -1782.5645       0.48248825E-01   0.19545781      -0.36533960E-02  -0.66706737E-02    52971.264        12105.320
  11568.400       0.23495326       -1751.8798       0.47793183E-01   0.19499531      -0.60700364E-02  -0.66672171E-02    53130.437        11896.956
  11568.800       0.23194085       -1721.5534       0.47337542E-01   0.19453291      -0.89871697E-02  -0.66956955E-02    53044.625        11691.018
  11569.200       0.22776352       -1691.5831       0.46881901E-01   0.19407060      -0.11426593E-01  -0.41129191E-02    52890.230        11487.490
  11569.600       0.22279958       -1661.9669       0.46426260E-01   0.19360838      -0.12277505E-01  -0.91347391E-03    52714.547        11286.361
  11570.000       0.21794152       -1632.7027       0.45970619E-01   0.19314626      -0.12157372E-01   0.96788103E-04    52777.857        11087.622
  11570.400       0.21307368       -1603.7883       0.45514978E-01   0.19268422      -0.12200074E-01   0.96052195E-03    52699.210        10891.258
  11570.800       0.20818146       -1575.2216       0.45059337E-01   0.19222227      -0.11388954E-01   0.15604596E-02    52720.401        10697.256
  11571.200       0.20396252       -1547.0006       0.44603696E-01   0.19176042      -0.10951707E-01   0.19086303E-02    52659.753        10505.605
  11571.600       0.19942009       -1519.1231       0.44148055E-01   0.19129866      -0.98620500E-02   0.35560968E-02    52413.880        10316.284
  11572.000       0.19607288       -1491.5869       0.43692414E-01   0.19083699      -0.81068294E-02   0.36177725E-02    52229.959        10129.290
  11572.400       0.19293463       -1464.3901       0.43236773E-01   0.19037540      -0.69678321E-02   0.24926005E-02    52341.397        9944.6002
  11572.800       0.19049861       -1437.5304       0.42781132E-01   0.18991392      -0.61127490E-02   0.12706202E-02    52402.530        9762.2051
  11573.200       0.18804443       -1411.0059       0.42325490E-01   0.18945252      -0.59513359E-02   0.12042117E-02    52626.126        9582.0850
  11573.600       0.18573754       -1384.8142       0.41869849E-01   0.18899121      -0.51493797E-02   0.19190026E-02    52861.436        9404.2267
  11574.000       0.18392493       -1358.9535       0.41414208E-01   0.18853000      -0.44161339E-02   0.16820833E-02    52809.227        9228.6183
  11574.400       0.18220464       -1333.4214       0.40958567E-01   0.18806887      -0.38037130E-02   0.13143024E-02    52775.243        9055.2427
  11574.800       0.18088196       -1308.2160       0.40502926E-01   0.18760784      -0.33646920E-02   0.10100563E-02    52821.734        8884.0876
  11575.200       0.17951288       -1283.3351       0.40047285E-01   0.18714690      -0.29956680E-02   0.17868437E-02    52656.998        8715.1357
  11575.600       0.17848542       -1258.7766       0.39591644E-01   0.18668604      -0.19352170E-02   0.11830869E-02    52802.080        8548.3753
  11576.000       0.17796471       -1234.5385       0.39136003E-01   0.18622529      -0.20491985E-02   0.30717779E-03    52438.262        8383.7932
  11576.400       0.17684606       -1210.6185       0.38680362E-01   0.18576462      -0.16894748E-02   0.79662927E-03    52540.810        8221.3676
  11576.800       0.17661313       -1187.0146       0.38224721E-01   0.18530404      -0.14118950E-02   0.72592206E-03    52475.237        8061.0941
  11577.200       0.17571655       -1163.7246       0.37769080E-01   0.18484355      -0.11087371E-02   0.13432102E-02    52725.443        7902.9481
  11577.600       0.17572614       -1140.7466       0.37313438E-01   0.18438316      -0.33732689E-03   0.16528865E-03    52840.542        7746.9257
  11578.000       0.17544669       -1118.0782       0.36857797E-01   0.18392286      -0.97650623E-03  -0.21458543E-03    52677.502        7593.0047
  11578.400       0.17494494       -1095.7176       0.36402156E-01   0.18346264      -0.50899524E-03   0.39097685E-03    52707.950        7441.1709
  11578.800       0.17503949       -1073.6624       0.35946515E-01   0.18300252      -0.66372475E-03  -0.51848290E-03    52608.306        7291.4158
  11579.200       0.17441396       -1051.9107       0.35490874E-01   0.18254249      -0.92378155E-03   0.79157975E-03    52625.795        7143.7161
  11579.600       0.17430047       -1030.4602       0.35035233E-01   0.18208255      -0.30460943E-04   0.77102140E-03    52605.275        6998.0657
  11580.000       0.17438959       -1009.3090       0.34579592E-01   0.18162271      -0.30696443E-03  -0.70333619E-03    52787.406        6854.4483
  11580.400       0.17405489       -988.45487       0.34123951E-01   0.18116295      -0.59312989E-03  -0.86797163E-03    52761.723        6712.8453
  11580.800       0.17391508       -967.89571       0.33668310E-01   0.18070329      -0.10013417E-02  -0.65865478E-03    52772.878        6573.2465
  11581.200       0.17325382       -947.62942       0.33212669E-01   0.18024371      -0.11200537E-02   0.52598236E-04    52539.989        6435.6328
  11581.600       0.17301904       -927.65389       0.32757028E-01   0.17978423      -0.95926315E-03  -0.41915277E-04    52616.253        6299.9963
  11582.000       0.17248641       -907.96702       0.32301387E-01   0.17932484      -0.11535859E-02  -0.77036073E-03    52531.283        6166.3177
  11582.400       0.17209617       -888.56668       0.31845745E-01   0.17886554      -0.15755517E-02  -0.75233349E-03    52678.059        6034.5856
  11582.800       0.17122597       -869.45077       0.31390104E-01   0.17840633      -0.17554527E-02  -0.42643892E-03    52400.571        5904.7817
  11583.200       0.17069181       -850.61718       0.30934463E-01   0.17794721      -0.19167029E-02  -0.38277671E-04    52545.488        5776.8969
  11583.600       0.16969261       -832.06380       0.30478822E-01   0.17748818      -0.17860749E-02   0.10980738E-02    52632.305        5650.9116
  11584.000       0.16926295       -813.78852       0.30023181E-01   0.17702925      -0.10382439E-02   0.43303331E-03    52693.654        5526.8185
  11584.400       0.16886201       -795.78923       0.29567540E-01   0.17657041      -0.14396482E-02  -0.92140206E-03    52709.459        5404.5996
  11584.800       0.16811123       -778.06381       0.29111899E-01   0.17611165      -0.17753655E-02  -0.51905729E-03    52638.604        5284.2380
  11585.200       0.16744172       -760.61017       0.28656258E-01   0.17565299      -0.18548940E-02   0.24297814E-03    52435.995        5165.7223
